Freq	Power
[Hz]	[dB]
0.000	-23.492
9.766	-26.792
19.531	-58.076
29.297	-55.416
39.062	-52.065
48.828	-47.698
58.594	-42.178
68.359	-34.850
78.125	-24.204
87.891	-1.605
97.656	7.783
107.422	4.741
117.187	-16.474
126.953	-30.361
136.719	-38.986
146.484	-45.372
156.250	-50.415
166.016	-54.474
175.781	-57.929
185.547	-60.736
195.312	-62.142
205.078	-64.359
214.844	-63.760
224.609	-63.381
234.375	-60.909
244.141	-57.863
253.906	-53.145
263.672	-47.002
273.437	-38.384
283.203	-24.172
292.969	-4.433
302.734	-1.865
312.500	-11.880
322.266	-33.271
332.031	-43.808
341.797	-51.118
351.562	-57.036
361.328	-61.767
371.094	-66.171
380.859	-69.969
390.625	-74.618
400.391	-78.420
410.156	-84.955
419.922	-81.379
429.687	-73.693
439.453	-69.010
449.219	-63.795
458.984	-57.563
468.750	-49.877
478.516	-38.965
488.281	-14.851
498.047	-6.062
507.812	-9.586
517.578	-32.502
527.344	-45.995
537.109	-54.415
546.875	-60.655
556.641	-65.311
566.406	-68.862
576.172	-72.386
585.937	-73.292
595.703	-75.410
605.469	-74.738
615.234	-72.896
625.000	-72.050
634.766	-68.397
644.531	-64.692
654.297	-59.824
664.062	-53.276
673.828	-44.507
683.594	-29.856
693.359	-11.400
703.125	-9.304
712.891	-19.965
722.656	-40.302
732.422	-50.632
742.187	-57.891
751.953	-63.466
761.719	-68.185
771.484	-73.573
781.250	-75.153
791.016	-80.967
800.781	-84.316
810.547	-87.819
820.312	-94.623
830.078	-78.993
839.844	-76.052
849.609	-70.413
859.375	-64.044
869.141	-56.312
878.906	-45.145
888.672	-19.212
898.437	-11.007
908.203	-15.015
917.969	-39.995
927.734	-53.075
937.500	-61.456
947.266	-67.614
957.031	-71.862
966.797	-74.861
976.562	-79.279
986.328	-79.184
996.094	-78.759
1005.859	-79.290
1015.625	-77.627
1025.391	-74.505
1035.156	-72.332
1044.922	-67.812
1054.687	-62.700
1064.453	-56.336
1074.219	-47.294
1083.984	-32.211
1093.750	-14.907
1103.516	-13.280
1113.281	-24.616
1123.047	-44.031
1132.812	-54.097
1142.578	-61.566
1152.344	-66.519
1162.109	-72.163
1171.875	-75.567
1181.641	-78.779
1191.406	-84.807
1201.172	-85.708
1210.937	-92.892
1220.703	-98.675
1230.469	-84.792
1240.234	-83.296
1250.000	-75.599
1259.766	-69.120
1269.531	-61.485
1279.297	-49.942
1289.062	-21.652
1298.828	-14.011
1308.594	-18.511
1318.359	-46.087
1328.125	-58.868
1337.891	-67.238
1347.656	-72.485
1357.422	-77.452
1367.187	-80.711
1376.953	-82.256
1386.719	-83.586
1396.484	-82.636
1406.250	-81.885
1416.016	-80.604
1425.781	-76.857
1435.547	-74.824
1445.312	-69.685
1455.078	-64.630
1464.844	-58.149
1474.609	-48.958
1484.375	-33.415
1494.141	-17.158
1503.906	-15.997
1513.672	-28.038
1523.437	-46.651
1533.203	-56.511
1542.969	-63.791
1552.734	-69.162
1562.500	-74.463
1572.266	-76.616
1582.031	-82.032
1591.797	-83.582
1601.562	-92.627
1611.328	-93.518
1621.094	-91.183
1630.859	-97.223
1640.625	-85.868
1650.391	-81.124
1660.156	-75.288
1669.922	-66.677
1679.687	-54.927
1689.453	-23.211
1699.219	-16.122
1708.984	-21.122
1718.750	-52.373
1728.516	-64.783
1738.281	-72.337
1748.047	-79.230
1757.812	-81.496
1767.578	-83.985
1777.344	-88.186
1787.109	-84.866
1796.875	-86.426
1806.641	-83.541
1816.406	-82.461
1826.172	-78.887
1835.937	-75.723
1845.703	-71.054
1855.469	-66.266
1865.234	-59.344
1875.000	-50.130
1884.766	-34.034
1894.531	-18.742
1904.297	-18.046
1914.062	-30.826
1923.828	-48.726
1933.594	-58.474
1943.359	-65.294
1953.125	-71.360
1962.891	-75.200
1972.656	-79.582
1982.422	-81.263
1992.187	-91.923
2001.953	-84.019
2011.719	-101.747
2021.484	-92.943
2031.250	-95.668
2041.016	-95.162
2050.781	-90.349
2060.547	-83.765
2070.312	-74.112
2080.078	-61.891
2089.844	-24.256
2099.609	-17.708
2109.375	-23.214
2119.141	-60.541
2128.906	-72.529
2138.672	-80.464
2148.437	-83.085
2158.203	-88.227
2167.969	-96.447
2177.734	-85.756
2187.500	-98.681
2197.266	-86.061
2207.031	-83.621
2216.797	-87.414
2226.562	-80.213
2236.328	-75.771
2246.094	-73.189
2255.859	-66.863
2265.625	-60.450
2275.391	-50.891
2285.156	-34.310
2294.922	-19.902
2304.687	-19.669
2314.453	-33.237
2324.219	-50.436
2333.984	-60.030
2343.750	-67.181
2353.516	-72.130
2363.281	-76.546
2373.047	-80.298
2382.812	-86.703
2392.578	-84.817
2402.344	-87.088
2412.109	-100.102
2421.875	-92.660
2431.641	-93.786
2441.406	-94.385
2451.172	-94.634
2460.937	-96.337
2470.703	-97.556
2480.469	-94.260
2490.234	-24.964
2500.000	-18.941
2509.766	-24.964
2519.531	-97.530
2529.297	-98.704
2539.062	-103.010
2548.828	-91.504
2558.594	-102.530
2568.359	-96.674
2578.125	-101.720
2587.891	-87.740
2597.656	-95.151
2607.422	-87.625
2617.187	-82.760
2626.953	-83.939
2636.719	-76.444
2646.484	-74.195
2656.250	-68.105
2666.016	-60.944
2675.781	-51.606
2685.547	-34.337
2695.312	-20.766
2705.078	-20.996
2714.844	-35.400
2724.609	-51.959
2734.375	-61.615
2744.141	-68.104
2753.906	-73.652
2763.672	-77.719
2773.437	-82.598
2783.203	-84.956
2792.969	-84.018
2802.734	-89.841
2812.500	-90.147
2822.266	-87.406
2832.031	-91.959
2841.797	-90.091
2851.562	-87.469
2861.328	-81.163
2871.094	-74.750
2880.859	-62.815
2890.625	-25.421
2900.391	-19.915
2910.156	-26.466
2919.922	-63.963
2929.687	-75.496
2939.453	-90.783
2949.219	-89.626
2958.984	-90.953
2968.750	-93.844
2978.516	-97.570
2988.281	-93.422
2998.047	-96.225
3007.812	-87.734
3017.578	-87.557
3027.344	-80.567
3037.109	-79.663
3046.875	-75.121
3056.641	-68.150
3066.406	-61.984
3076.172	-52.060
3085.937	-34.183
3095.703	-21.400
3105.469	-22.096
3115.234	-37.400
3125.000	-53.389
3134.766	-62.822
3144.531	-69.130
3154.297	-75.502
3164.062	-78.316
3173.828	-82.733
3183.594	-85.066
3193.359	-88.926
3203.125	-85.717
3212.891	-94.954
3222.656	-87.898
3232.422	-89.196
3242.187	-86.871
3251.953	-81.931
3261.719	-77.505
3271.484	-69.236
3281.250	-56.871
3291.016	-25.681
3300.781	-20.684
3310.547	-27.774
3320.312	-59.506
3330.078	-71.026
3339.844	-79.866
3349.609	-85.057
3359.375	-94.951
3369.141	-92.470
3378.906	-102.348
3388.672	-97.447
3398.437	-97.397
3408.203	-90.124
3417.969	-84.860
3427.734	-85.589
3437.500	-79.083
3447.266	-76.128
3457.031	-68.719
3466.797	-62.666
3476.562	-52.472
3486.328	-33.902
3496.094	-21.856
3505.859	-23.016
3515.625	-39.276
3525.391	-54.799
3535.156	-64.220
3544.922	-70.142
3554.687	-75.840
3564.453	-80.110
3574.219	-82.918
3583.984	-85.787
3593.750	-89.210
3603.516	-86.845
3613.281	-90.584
3623.047	-88.495
3632.812	-88.117
3642.578	-82.943
3652.344	-79.915
3662.109	-74.129
3671.875	-66.321
3681.641	-53.346
3691.406	-25.787
3701.172	-21.289
3710.937	-28.935
3720.703	-57.086
3730.469	-68.874
3740.234	-76.422
3750.000	-81.949
3759.766	-94.439
3769.531	-86.064
3779.297	-100.914
3789.062	-92.895
3798.828	-109.175
3808.594	-86.374
3818.359	-90.699
3828.125	-85.818
3837.891	-79.778
3847.656	-76.477
3857.422	-69.738
3867.187	-63.073
3876.953	-52.927
3886.719	-33.491
3896.484	-22.155
3906.250	-23.782
3916.016	-41.091
3925.781	-56.176
3935.547	-64.929
3945.312	-72.429
3955.078	-75.890
3964.844	-81.787
3974.609	-83.403
3984.375	-86.248
3994.141	-89.127
4003.906	-87.568
4013.672	-91.612
4023.437	-86.211
4033.203	-87.234
4042.969	-81.248
4052.734	-78.575
4062.500	-72.549
4072.266	-63.760
4082.031	-50.722
4091.797	-25.753
4101.562	-21.745
4111.328	-29.953
4121.094	-55.821
4130.859	-67.109
4140.625	-75.054
4150.391	-81.148
4160.156	-83.505
4169.922	-100.577
4179.687	-93.863
4189.453	-90.145
4199.219	-96.095
4208.984	-94.716
4218.750	-87.961
4228.516	-87.438
4238.281	-80.391
4248.047	-76.325
4257.812	-71.015
4267.578	-63.664
4277.344	-53.315
4287.109	-32.978
4296.875	-22.318
4306.641	-24.414
4316.406	-42.885
4326.172	-57.487
4335.937	-66.314
4345.703	-72.706
4355.469	-78.287
4365.234	-80.265
4375.000	-87.077
4384.766	-88.671
4394.531	-84.343
4404.297	-95.849
4414.062	-85.000
4423.828	-88.465
4433.594	-84.716
4443.359	-81.940
4453.125	-75.902
4462.891	-70.809
4472.656	-61.792
4482.422	-48.488
4492.187	-25.588
4501.953	-22.067
4511.719	-30.857
4521.484	-54.894
4531.250	-66.217
4541.016	-72.950
4550.781	-80.072
4560.547	-84.016
4570.312	-90.103
4580.078	-96.145
4589.844	-90.811
4599.609	-99.558
4609.375	-94.149
4619.141	-87.708
4628.906	-88.942
4638.672	-82.778
4648.437	-77.392
4658.203	-71.235
4667.969	-64.468
4677.734	-53.719
4687.500	-32.366
4697.266	-22.353
4707.031	-24.922
4716.797	-44.673
4726.562	-58.893
4736.328	-67.685
4746.094	-73.672
4755.859	-79.352
4765.625	-81.273
4775.391	-88.785
4785.156	-85.099
4794.922	-89.338
4804.687	-89.319
4814.453	-88.736
4824.219	-84.791
4833.984	-85.367
4843.750	-79.855
4853.516	-74.630
4863.281	-69.151
4873.047	-60.266
4882.812	-46.544
4892.578	-25.313
4902.344	-22.270
4912.109	-31.659
4921.875	-54.281
4931.641	-65.144
4941.406	-71.906
4951.172	-78.781
4960.937	-83.013
4970.703	-90.305
4980.469	-87.447
4990.234	-95.914
