Freq	Power
[Hz]	[dB]
0.000	-72.387
1.953	-77.691
3.906	-62.826
5.859	-61.351
7.812	-70.525
9.766	-86.326
11.719	-78.382
13.672	-83.734
15.625	-93.154
17.578	-101.759
19.531	-89.177
21.484	-90.137
23.437	-82.758
25.391	-78.929
27.344	-75.303
29.297	-65.564
31.250	-34.089
33.203	-27.171
35.156	-32.339
37.109	-63.927
39.062	-75.923
41.016	-78.863
42.969	-83.946
44.922	-83.082
46.875	-86.109
48.828	-98.954
50.781	-94.950
52.734	-84.974
54.687	-81.687
56.641	-115.844
58.594	-86.087
60.547	-80.144
62.500	-85.430
64.453	-93.002
66.406	-100.038
68.359	-87.637
70.312	-86.010
72.266	-86.896
74.219	-88.001
76.172	-85.581
78.125	-86.269
80.078	-83.877
82.031	-97.393
83.984	-87.531
85.937	-81.429
87.891	-90.055
89.844	-81.233
91.797	-78.849
93.750	-78.659
95.703	-67.992
97.656	-45.637
99.609	-36.852
101.562	-40.443
103.516	-62.899
105.469	-72.860
107.422	-81.822
109.375	-87.892
111.328	-89.090
113.281	-90.187
115.234	-88.745
117.187	-83.423
119.141	-80.673
121.094	-82.523
123.047	-84.076
125.000	-89.841
126.953	-90.108
128.906	-88.359
130.859	-91.274
132.812	-95.476
134.766	-90.232
136.719	-94.729
138.672	-86.828
140.625	-81.336
142.578	-88.017
144.531	-90.851
146.484	-82.655
148.437	-90.179
150.391	-87.518
152.344	-90.857
154.297	-91.225
156.250	-81.027
158.203	-83.999
160.156	-77.118
162.109	-71.246
164.062	-52.465
166.016	-41.620
167.969	-43.691
169.922	-61.349
171.875	-72.833
173.828	-83.787
175.781	-91.901
177.734	-82.772
179.687	-88.911
181.641	-86.889
183.594	-98.119
185.547	-81.261
187.500	-84.290
189.453	-89.746
191.406	-86.687
193.359	-90.882
195.312	-86.324
197.266	-91.550
199.219	-87.181
201.172	-91.935
203.125	-83.149
205.078	-87.649
207.031	-87.435
208.984	-89.908
210.937	-83.271
212.891	-84.703
214.844	-83.562
216.797	-82.767
218.750	-88.451
220.703	-97.222
222.656	-81.896
224.609	-83.356
226.562	-75.866
228.516	-76.251
230.469	-58.443
232.422	-45.008
234.375	-45.583
236.328	-59.548
238.281	-76.313
240.234	-80.920
242.187	-88.873
244.141	-86.728
246.094	-88.553
248.047	-83.217
250.000	-98.071
251.953	-90.392
253.906	-96.677
255.859	-82.511
257.812	-89.884
259.766	-95.936
261.719	-85.549
263.672	-93.957
265.625	-84.780
267.578	-83.323
269.531	-82.581
271.484	-85.349
273.437	-86.852
275.391	-89.809
277.344	-88.600
279.297	-84.965
281.250	-96.709
283.203	-82.829
285.156	-89.065
287.109	-88.795
289.062	-86.645
291.016	-89.300
292.969	-78.754
294.922	-77.068
296.875	-64.602
298.828	-47.860
300.781	-46.998
302.734	-58.586
304.687	-76.728
306.641	-87.258
308.594	-84.030
310.547	-92.203
312.500	-91.456
314.453	-88.093
316.406	-82.988
318.359	-89.641
320.312	-89.487
322.266	-88.694
324.219	-93.977
326.172	-86.806
328.125	-88.733
330.078	-77.424
332.031	-80.498
333.984	-89.830
335.937	-91.520
337.891	-91.793
339.844	-86.199
341.797	-101.384
343.750	-86.749
345.703	-100.224
347.656	-85.848
349.609	-85.702
351.562	-102.019
353.516	-81.966
355.469	-90.902
357.422	-88.389
359.375	-74.434
361.328	-77.581
363.281	-70.494
365.234	-50.480
367.187	-48.023
369.141	-57.406
371.094	-78.263
373.047	-83.944
375.000	-91.665
376.953	-93.927
378.906	-80.260
380.859	-86.805
382.812	-90.850
384.766	-89.334
386.719	-90.553
388.672	-85.709
390.625	-89.284
392.578	-95.450
394.531	-91.521
396.484	-81.911
398.437	-84.612
400.391	-85.239
402.344	-83.962
404.297	-87.596
406.250	-86.660
408.203	-104.692
410.156	-89.442
412.109	-91.664
414.062	-87.041
416.016	-91.417
417.969	-83.454
419.922	-81.602
421.875	-77.504
423.828	-78.521
425.781	-83.233
427.734	-82.092
429.687	-84.233
431.641	-52.966
433.594	-48.995
435.547	-56.533
437.500	-78.223
439.453	-80.415
441.406	-87.988
443.359	-81.587
445.312	-91.689
447.266	-83.027
449.219	-87.836
451.172	-89.511
453.125	-88.288
455.078	-91.621
457.031	-83.685
458.984	-92.369
460.937	-86.984
462.891	-88.634
464.844	-88.457
466.797	-87.396
468.750	-92.282
470.703	-100.786
472.656	-92.692
474.609	-82.958
476.562	-91.398
478.516	-83.174
480.469	-88.146
482.422	-86.489
484.375	-78.789
486.328	-82.316
488.281	-84.081
490.234	-76.652
492.187	-74.049
494.141	-78.583
496.094	-82.166
498.047	-55.155
500.000	-50.012
501.953	-56.421
503.906	-80.548
505.859	-74.848
507.812	-73.320
509.766	-76.877
511.719	-78.918
513.672	-76.557
515.625	-78.065
517.578	-83.500
519.531	-84.719
521.484	-80.312
523.437	-82.039
525.391	-82.416
527.344	-93.494
529.297	-86.527
531.250	-89.171
533.203	-80.072
535.156	-88.408
537.109	-88.592
539.062	-84.172
541.016	-94.231
542.969	-86.213
544.922	-93.238
546.875	-91.494
548.828	-89.938
550.781	-86.005
552.734	-82.743
554.687	-84.979
556.641	-87.012
558.594	-82.675
560.547	-79.677
562.500	-78.207
564.453	-58.298
566.406	-50.877
568.359	-55.048
570.312	-76.200
572.266	-88.194
574.219	-81.949
576.172	-87.105
578.125	-83.048
580.078	-88.224
582.031	-81.966
583.984	-92.226
585.937	-82.818
587.891	-85.448
589.844	-90.400
591.797	-90.123
593.750	-87.197
595.703	-85.246
597.656	-92.849
599.609	-92.750
601.562	-100.658
603.516	-82.986
605.469	-84.340
607.422	-85.296
609.375	-88.562
611.328	-87.846
613.281	-88.962
615.234	-92.918
617.187	-90.870
619.141	-85.168
621.094	-89.723
623.047	-87.632
625.000	-82.836
626.953	-81.925
628.906	-79.530
630.859	-60.595
632.812	-51.648
634.766	-54.544
636.719	-75.457
638.672	-75.302
640.625	-86.262
642.578	-84.645
644.531	-91.232
646.484	-85.128
648.437	-86.399
650.391	-96.041
652.344	-86.550
654.297	-84.391
656.250	-91.072
658.203	-85.547
660.156	-85.495
662.109	-88.679
664.062	-84.782
666.016	-80.479
667.969	-91.159
669.922	-87.806
671.875	-87.020
673.828	-89.678
675.781	-84.652
677.734	-86.806
679.687	-80.123
681.641	-94.903
683.594	-88.865
685.547	-86.417
687.500	-83.671
689.453	-88.047
691.406	-82.302
693.359	-80.252
695.312	-77.413
697.266	-64.356
699.219	-52.699
701.172	-53.857
703.125	-67.835
705.078	-80.617
707.031	-81.041
708.984	-81.370
710.937	-82.126
712.891	-93.781
714.844	-87.152
716.797	-84.853
718.750	-88.408
720.703	-83.658
722.656	-83.369
724.609	-86.869
726.562	-81.256
728.516	-85.628
730.469	-87.940
732.422	-87.614
734.375	-82.127
736.328	-91.953
738.281	-89.200
740.234	-92.683
742.187	-89.676
744.141	-91.602
746.094	-80.695
748.047	-86.520
750.000	-88.885
751.953	-83.317
753.906	-88.901
755.859	-86.321
757.812	-84.445
759.766	-82.184
761.719	-75.547
763.672	-68.272
765.625	-53.098
767.578	-54.313
769.531	-56.439
771.484	-50.337
773.437	-37.096
775.391	-12.939
777.344	-9.124
779.297	-17.552
781.250	-42.722
783.203	-53.581
785.156	-61.897
787.109	-66.957
789.062	-70.545
791.016	-78.451
792.969	-77.259
794.922	-76.346
796.875	-87.854
798.828	-82.340
800.781	-85.740
802.734	-87.060
804.687	-82.427
806.641	-90.365
808.594	-90.015
810.547	-89.721
812.500	-84.295
814.453	-86.636
816.406	-97.681
818.359	-89.839
820.312	-89.163
822.266	-80.724
824.219	-82.548
826.172	-78.898
828.125	-87.787
830.078	-71.123
832.031	-54.955
833.984	-53.295
835.937	-63.051
837.891	-77.486
839.844	-84.029
841.797	-84.874
843.750	-81.871
845.703	-86.509
847.656	-82.483
849.609	-99.824
851.562	-97.566
853.516	-85.597
855.469	-86.076
857.422	-86.409
859.375	-96.759
861.328	-91.710
863.281	-93.216
865.234	-85.231
867.187	-94.449
869.141	-91.380
871.094	-85.088
873.047	-92.775
875.000	-85.127
876.953	-93.741
878.906	-88.629
880.859	-92.561
882.812	-89.207
884.766	-84.602
886.719	-85.859
888.672	-82.128
890.625	-96.542
892.578	-79.765
894.531	-87.146
896.484	-77.797
898.437	-56.298
900.391	-53.218
902.344	-61.256
904.297	-79.505
906.250	-90.128
908.203	-81.560
910.156	-86.628
912.109	-88.470
914.062	-87.862
916.016	-79.841
917.969	-81.843
919.922	-85.240
921.875	-93.963
923.828	-88.259
925.781	-85.049
927.734	-97.187
929.687	-90.894
931.641	-84.719
933.594	-102.296
935.547	-85.611
937.500	-88.462
939.453	-86.636
941.406	-92.538
943.359	-86.045
945.312	-88.988
947.266	-85.353
949.219	-94.878
951.172	-80.442
953.125	-86.815
955.078	-84.188
957.031	-88.050
958.984	-80.394
960.937	-79.256
962.891	-89.029
964.844	-57.588
966.797	-52.967
968.750	-59.231
970.703	-81.835
972.656	-81.297
974.609	-93.892
976.562	-82.278
978.516	-85.057
980.469	-87.392
982.422	-83.477
984.375	-88.548
986.328	-81.032
988.281	-92.787
990.234	-87.954
992.187	-99.501
994.141	-89.049
996.094	-95.856
998.047	-89.005
