Freq	Power
[Hz]	[dB]
0.000	-73.764
0.977	-75.473
1.953	-86.774
2.930	-80.194
3.906	-74.872
4.883	-61.460
5.859	-62.893
6.836	-78.847
7.812	-80.640
8.789	-77.866
9.766	-76.100
10.742	-81.759
11.719	-91.959
12.695	-85.844
13.672	-80.411
14.648	-85.815
15.625	-90.990
16.602	-92.514
17.578	-81.319
18.555	-81.872
19.531	-88.922
20.508	-83.377
21.484	-87.158
22.461	-79.610
23.437	-88.161
24.414	-83.014
25.391	-83.059
26.367	-78.736
27.344	-80.056
28.320	-76.974
29.297	-73.513
30.273	-68.776
31.250	-60.278
32.227	-35.017
33.203	-27.230
34.180	-31.636
35.156	-57.229
36.133	-65.318
37.109	-75.563
38.086	-79.527
39.062	-84.554
40.039	-83.116
41.016	-78.912
41.992	-79.564
42.969	-91.450
43.945	-82.637
44.922	-85.866
45.898	-84.984
46.875	-87.496
47.852	-85.209
48.828	-78.515
49.805	-78.219
50.781	-89.970
51.758	-86.668
52.734	-86.486
53.711	-87.887
54.687	-94.524
55.664	-82.892
56.641	-91.901
57.617	-83.538
58.594	-83.713
59.570	-88.405
60.547	-86.611
61.523	-82.464
62.500	-91.920
63.477	-82.653
64.453	-88.752
65.430	-88.705
66.406	-85.722
67.383	-95.019
68.359	-84.947
69.336	-93.911
70.312	-89.506
71.289	-94.718
72.266	-83.677
73.242	-85.386
74.219	-81.643
75.195	-78.995
76.172	-88.121
77.148	-86.281
78.125	-84.432
79.102	-83.787
80.078	-88.947
81.055	-78.233
82.031	-80.395
83.008	-83.179
83.984	-81.054
84.961	-83.390
85.937	-86.583
86.914	-85.161
87.891	-84.344
88.867	-79.203
89.844	-83.980
90.820	-82.220
91.797	-77.366
92.773	-85.358
93.750	-79.369
94.727	-75.407
95.703	-74.705
96.680	-70.570
97.656	-65.349
98.633	-49.392
99.609	-37.342
100.586	-38.727
101.562	-53.817
102.539	-68.273
103.516	-75.392
104.492	-81.847
105.469	-77.444
106.445	-79.761
107.422	-80.197
108.398	-78.636
109.375	-91.171
110.352	-80.731
111.328	-86.790
112.305	-80.390
113.281	-95.662
114.258	-82.242
115.234	-84.718
116.211	-87.328
117.187	-85.572
118.164	-88.887
119.141	-83.182
120.117	-83.632
121.094	-86.357
122.070	-89.047
123.047	-90.107
124.023	-87.280
125.000	-89.993
125.977	-89.616
126.953	-84.584
127.930	-93.726
128.906	-82.350
129.883	-89.684
130.859	-90.715
131.836	-90.742
132.812	-88.970
133.789	-88.872
134.766	-94.116
135.742	-83.917
136.719	-98.432
137.695	-87.064
138.672	-93.187
139.648	-89.088
140.625	-84.535
141.602	-85.772
142.578	-85.949
143.555	-94.208
144.531	-80.857
145.508	-79.653
146.484	-87.817
147.461	-84.393
148.437	-86.227
149.414	-94.033
150.391	-83.425
151.367	-85.569
152.344	-83.420
153.320	-90.868
154.297	-89.180
155.273	-79.077
156.250	-83.881
157.227	-79.995
158.203	-81.883
159.180	-79.189
160.156	-81.192
161.133	-76.966
162.109	-74.706
163.086	-72.373
164.062	-71.838
165.039	-61.673
166.016	-43.107
166.992	-41.662
167.969	-51.944
168.945	-68.881
169.922	-76.673
170.898	-80.459
171.875	-84.948
172.852	-76.694
173.828	-80.232
174.805	-79.474
175.781	-82.862
176.758	-83.101
177.734	-83.972
178.711	-91.551
179.687	-87.074
180.664	-81.006
181.641	-81.020
182.617	-90.807
183.594	-86.686
184.570	-82.985
185.547	-82.220
186.523	-83.184
187.500	-88.955
188.477	-98.714
189.453	-88.180
190.430	-87.301
191.406	-88.610
192.383	-95.462
193.359	-84.662
194.336	-83.023
195.312	-87.491
196.289	-81.471
197.266	-83.645
198.242	-88.222
199.219	-89.010
200.195	-92.910
201.172	-81.962
202.148	-86.970
203.125	-90.927
204.102	-83.646
205.078	-78.875
206.055	-85.820
207.031	-88.227
208.008	-97.755
208.984	-88.395
209.961	-86.120
210.937	-80.490
211.914	-74.711
212.891	-91.967
213.867	-77.350
214.844	-77.661
215.820	-72.570
216.797	-67.148
217.773	-62.624
218.750	-57.694
219.727	-50.560
220.703	-40.452
221.680	-20.841
222.656	-9.646
223.633	-11.369
224.609	-28.929
225.586	-43.976
226.562	-52.374
227.539	-58.779
228.516	-63.492
229.492	-69.394
230.469	-76.970
231.445	-84.507
232.422	-48.071
233.398	-43.422
234.375	-50.106
235.352	-71.999
236.328	-74.919
237.305	-75.277
238.281	-80.665
239.258	-80.478
240.234	-77.438
241.211	-82.022
242.187	-83.525
243.164	-79.080
244.141	-85.549
245.117	-84.236
246.094	-82.453
247.070	-79.373
248.047	-91.773
249.023	-85.099
250.000	-85.024
250.977	-82.119
251.953	-82.412
252.930	-85.077
253.906	-84.481
254.883	-84.200
255.859	-81.938
256.836	-88.619
257.812	-98.564
258.789	-87.489
259.766	-87.165
260.742	-87.612
261.719	-83.799
262.695	-86.101
263.672	-88.284
264.648	-82.309
265.625	-83.575
266.602	-87.655
267.578	-105.153
268.555	-82.284
269.531	-91.026
270.508	-82.590
271.484	-83.000
272.461	-80.077
273.437	-89.976
274.414	-93.976
275.391	-82.614
276.367	-78.556
277.344	-82.785
278.320	-79.878
279.297	-77.989
280.273	-86.895
281.250	-79.668
282.227	-78.706
283.203	-83.850
284.180	-84.762
285.156	-85.714
286.133	-85.249
287.109	-81.915
288.086	-83.645
289.062	-87.696
290.039	-78.162
291.016	-87.868
291.992	-78.272
292.969	-75.804
293.945	-81.915
294.922	-79.920
295.898	-75.420
296.875	-72.961
297.852	-69.509
298.828	-53.148
299.805	-45.252
300.781	-48.728
301.758	-66.453
302.734	-71.540
303.711	-75.415
304.687	-78.109
305.664	-76.869
306.641	-80.821
307.617	-80.241
308.594	-84.042
309.570	-86.059
310.547	-84.812
311.523	-82.659
312.500	-88.977
313.477	-80.856
314.453	-84.327
315.430	-94.898
316.406	-81.110
317.383	-88.185
318.359	-83.758
319.336	-91.339
320.312	-81.783
321.289	-80.199
322.266	-91.289
323.242	-86.627
324.219	-87.050
325.195	-83.057
326.172	-94.715
327.148	-85.473
328.125	-87.889
329.102	-88.313
330.078	-83.206
331.055	-78.642
332.031	-79.740
333.008	-87.606
333.984	-89.507
334.961	-82.519
335.937	-87.614
336.914	-86.230
337.891	-91.387
338.867	-82.372
339.844	-90.916
340.820	-83.587
341.797	-89.614
342.773	-82.461
343.750	-92.324
344.727	-83.142
345.703	-82.264
346.680	-86.743
347.656	-85.577
348.633	-81.794
349.609	-93.364
350.586	-78.999
351.562	-90.184
352.539	-86.235
353.516	-117.894
354.492	-83.690
355.469	-86.519
356.445	-81.037
357.422	-79.844
358.398	-83.112
359.375	-80.312
360.352	-83.917
361.328	-76.665
362.305	-74.341
363.281	-74.150
364.258	-69.219
365.234	-59.108
366.211	-47.123
367.187	-47.832
368.164	-59.888
369.141	-72.294
370.117	-74.214
371.094	-77.416
372.070	-77.892
373.047	-80.991
374.023	-81.510
375.000	-79.197
375.977	-81.695
376.953	-81.662
377.930	-88.062
378.906	-84.471
379.883	-86.508
380.859	-100.720
381.836	-80.575
382.812	-87.904
383.789	-82.083
384.766	-96.507
385.742	-82.068
386.719	-85.888
387.695	-91.661
388.672	-88.015
389.648	-82.908
390.625	-101.999
391.602	-84.676
392.578	-82.410
393.555	-92.774
394.531	-86.095
395.508	-88.262
396.484	-76.986
397.461	-86.238
398.437	-91.108
399.414	-81.523
400.391	-88.043
401.367	-90.781
402.344	-96.833
403.320	-86.108
404.297	-85.507
405.273	-95.364
406.250	-89.598
407.227	-89.925
408.203	-86.879
409.180	-85.147
410.156	-92.603
411.133	-85.649
412.109	-84.787
413.086	-84.080
414.062	-87.301
415.039	-90.529
416.016	-82.647
416.992	-90.349
417.969	-84.135
418.945	-89.166
419.922	-78.935
420.898	-79.966
421.875	-82.999
422.852	-82.961
423.828	-82.507
424.805	-84.980
425.781	-79.871
426.758	-80.830
427.734	-77.725
428.711	-76.798
429.687	-74.575
430.664	-72.456
431.641	-67.294
432.617	-49.331
433.594	-47.239
434.570	-55.493
435.547	-72.399
436.523	-74.164
437.500	-81.683
438.477	-74.900
439.453	-79.437
440.430	-78.436
441.406	-83.744
442.383	-78.884
443.359	-86.449
444.336	-81.597
445.312	-80.980
446.289	-86.164
447.266	-82.470
448.242	-83.807
449.219	-78.334
450.195	-85.181
451.172	-85.938
452.148	-81.402
453.125	-87.444
454.102	-82.508
455.078	-88.424
456.055	-80.974
457.031	-98.203
458.008	-93.505
458.984	-86.601
459.961	-86.623
460.937	-87.119
461.914	-93.609
462.891	-87.363
463.867	-83.389
464.844	-93.985
465.820	-86.758
466.797	-89.460
467.773	-82.694
468.750	-87.989
469.727	-93.991
470.703	-88.677
471.680	-109.640
472.656	-87.048
473.633	-90.740
474.609	-84.472
475.586	-82.544
476.562	-85.610
477.539	-85.970
478.516	-87.229
479.492	-81.778
480.469	-81.108
481.445	-87.502
482.422	-87.696
483.398	-85.129
484.375	-78.861
485.352	-89.185
486.328	-78.050
487.305	-84.430
488.281	-80.359
489.258	-83.708
490.234	-83.603
491.211	-84.061
492.187	-86.902
493.164	-78.039
494.141	-78.283
495.117	-78.018
496.094	-70.981
497.070	-82.702
498.047	-70.945
499.023	-52.429
